[MS Spectrum]
# of Peaks	699
Raw Spectrum	[7.037],(scan:[2816])
Background	No Background Spectrum
Base Peak	m/z 190.45 (Inten : 50,540)
m/z	Absolute Intensity	Relative Intensity
54.65	2703	5.35
55.65	5408	10.70
56.35	45769	90.56
58.55	25262	49.98
58.75	5813	11.50
59.95	12140	24.02
61.10	9321	18.44
62.35	9655	19.10
62.65	2567	5.08
63.70	6285	12.44
64.85	6327	12.52
65.55	2181	4.32
66.75	9733	19.26
68.20	5993	11.86
69.30	5984	11.84
69.95	2127	4.21
70.85	2288	4.53
71.55	9412	18.62
73.05	5795	11.47
73.90	2453	4.85
74.70	4528	8.96
76.05	6197	12.26
77.45	4257	8.42
77.95	1329	2.63
78.95	3623	7.17
79.55	1212	2.40
80.15	4722	9.34
81.15	1136	2.25
81.80	2726	5.39
83.10	1414	2.80
83.95	3276	6.48
84.75	1087	2.15
85.55	3375	6.68
86.70	2772	5.48
87.25	906	1.79
88.05	1525	3.02
88.60	1134	2.24
89.10	1112	2.20
90.05	902	1.78
91.05	9850	19.49
91.65	1700	3.36
92.35	1084	2.14
93.45	1291	2.55
94.05	1026	2.03
94.90	1841	3.64
95.60	807	1.60
96.15	1103	2.18
96.70	782	1.55
97.75	908	1.80
98.35	1059	2.10
98.90	672	1.33
99.75	1839	3.64
100.60	1273	2.52
101.55	970	1.92
102.35	476	0.94
103.15	804	1.59
104.25	783	1.55
105.10	1196	2.37
106.40	596	1.18
107.00	748	1.48
107.55	804	1.59
108.65	740	1.46
109.20	436	0.86
109.70	457	0.90
110.25	525	1.04
110.80	486	0.96
111.35	664	1.31
111.90	635	1.26
112.85	1200	2.37
113.60	538	1.06
114.10	458	0.91
115.10	716	1.42
115.70	494	0.98
116.60	7412	14.67
117.15	732	1.45
117.95	444	0.88
118.50	406	0.80
119.05	431	0.85
119.60	518	1.02
120.10	372	0.74
120.65	489	0.97
121.15	217	0.43
121.75	486	0.96
122.30	338	0.67
122.80	334	0.66
123.40	337	0.67
123.95	558	1.10
124.55	334	0.66
125.05	181	0.36
125.60	233	0.46
126.45	511	1.01
127.15	422	0.83
127.70	401	0.79
128.25	215	0.43
128.85	216	0.43
129.50	232	0.46
129.90	297	0.59
130.45	390	0.77
131.00	337	0.67
131.70	303	0.60
132.15	177	0.35
133.10	849	1.68
133.80	107	0.21
134.35	467	0.92
134.85	225	0.45
135.45	329	0.65
135.80	170	0.34
136.45	158	0.31
137.00	256	0.51
137.50	92	0.18
138.65	265	0.52
139.15	500	0.99
139.70	250	0.49
140.65	1547	3.06
141.40	306	0.61
141.85	160	0.32
142.50	215	0.43
143.15	1220	2.41
144.60	2168	4.29
145.20	130	0.26
145.80	153	0.30
146.25	458	0.91
147.30	479	0.95
147.90	303	0.60
148.45	144	0.28
149.00	332	0.66
149.60	54	0.11
150.15	121	0.24
150.65	145	0.29
151.25	173	0.34
151.65	134	0.27
152.50	505	1.00
153.40	115	0.23
154.00	247	0.49
154.45	120	0.24
155.05	113	0.22
155.60	232	0.46
156.05	169	0.33
156.75	150	0.30
158.25	225	0.45
158.80	138	0.27
159.35	275	0.54
160.45	216	0.43
161.80	1137	2.25
162.70	116	0.23
163.20	209	0.41
163.75	168	0.33
164.20	42	0.08
165.45	153	0.30
165.80	80	0.16
166.35	85	0.17
167.05	213	0.42
167.55	74	0.15
168.05	203	0.40
168.65	117	0.23
169.20	128	0.25
169.75	83	0.16
170.15	262	0.52
171.25	196	0.39
172.35	327	0.65
173.15	137	0.27
173.50	102	0.20
174.10	98	0.19
175.25	61	0.12
176.50	1060	2.10
176.95	886	1.75
178.45	133	0.26
178.95	86	0.17
179.45	154	0.30
180.20	27	0.05
181.10	184	0.36
182.15	14	0.03
183.15	3	0.01
184.10	4769	9.44
184.70	2755	5.45
185.60	457	0.90
186.10	127	0.25
187.20	106	0.21
187.70	134	0.27
188.20	78	0.15
189.15	23	0.05
190.45	50540	100.00
191.55	493	0.98
192.55	11	0.02
193.70	117	0.23
194.90	3747	7.41
195.80	223	0.44
196.40	98	0.19
196.95	116	0.23
197.50	110	0.22
198.45	28	0.06
199.35	36	0.07
200.20	124	0.25
200.80	93	0.18
201.30	139	0.28
201.85	139	0.28
202.95	1320	2.61
203.45	188	0.37
204.60	72	0.14
205.05	200	0.40
205.80	183	0.36
206.30	106	0.21
206.75	638	1.26
207.75	22	0.04
208.65	18	0.04
209.55	101	0.20
210.45	449	0.89
211.65	1803	3.57
212.20	107	0.21
213.05	14	0.03
213.90	66	0.13
214.40	158	0.31
214.95	1303	2.58
215.55	77	0.15
217.40	219	0.43
219.00	1371	2.71
219.95	50	0.10
220.95	164	0.32
221.85	36	0.07
222.65	84	0.17
223.15	189	0.37
223.55	233	0.46
224.45	14	0.03
225.30	85	0.17
226.60	404	0.80
227.25	3	0.01
228.00	80	0.16
228.50	72	0.14
229.55	71	0.14
230.70	89	0.18
231.75	119	0.24
232.85	2672	5.29
235.10	174	0.34
236.20	116	0.23
237.25	446	0.88
238.05	25	0.05
238.85	442	0.87
239.85	18	0.04
240.85	18	0.04
241.85	3	0.01
242.85	52	0.10
243.85	52	0.10
244.90	102	0.20
245.85	47	0.09
246.85	23	0.05
248.85	77	0.15
249.85	68	0.13
250.90	124	0.25
251.55	137	0.27
252.05	84	0.17
252.50	96	0.19
253.45	19	0.04
254.45	27	0.05
255.45	4	0.01
257.45	36	0.07
258.45	18	0.04
259.45	14	0.03
260.45	46	0.09
261.45	40	0.08
262.40	55	0.11
262.85	94	0.19
263.85	170	0.34
265.05	1649	3.26
266.90	687	1.36
267.85	11	0.02
268.90	1952	3.86
269.85	23	0.05
270.85	10	0.02
271.85	17	0.03
272.85	2084	4.12
273.30	242	0.48
274.00	2262	4.48
274.95	20	0.04
275.95	9	0.02
276.95	42	0.08
278.15	104	0.21
278.60	122	0.24
279.65	23	0.05
280.65	25	0.05
281.85	581	1.15
282.85	43	0.09
283.85	2	0.00
285.20	93	0.18
286.05	16	0.03
286.90	57	0.11
287.40	104	0.21
288.45	136	0.27
290.80	883	1.75
291.75	119	0.24
292.80	1088	2.15
294.05	1215	2.40
294.50	60	0.12
295.35	4	0.01
296.30	318	0.63
296.70	664	1.31
297.75	29	0.06
298.75	5	0.01
299.75	12	0.02
300.75	21	0.04
301.85	1031	2.04
303.20	663	1.31
304.25	4	0.01
305.55	156	0.31
307.10	109	0.22
307.95	41	0.08
308.75	322	0.64
309.75	135	0.27
310.85	5171	10.23
312.80	690	1.37
313.85	2	0.00
314.85	26	0.05
315.95	1770	3.50
316.95	21	0.04
318.20	2050	4.06
319.15	137	0.27
320.15	55	0.11
321.25	2089	4.13
322.25	44	0.09
324.25	26	0.05
325.25	9	0.02
326.15	115	0.23
327.15	4	0.01
328.25	1022	2.02
328.75	1540	3.05
330.15	672	1.33
330.90	468	0.93
332.85	7	0.01
333.85	58	0.11
335.75	12	0.02
336.60	634	1.25
337.65	1232	2.44
338.10	363	0.72
338.95	2	0.00
339.80	145	0.29
341.65	2	0.00
342.50	881	1.74
343.05	543	1.07
344.15	506	1.00
344.95	1204	2.38
345.85	20	0.04
346.80	2281	4.51
347.75	3	0.01
348.75	17	0.03
350.10	117	0.23
350.95	7	0.01
351.80	358	0.71
353.65	2	0.00
354.45	98	0.19
355.00	209	0.41
356.05	20	0.04
357.00	3461	6.85
358.15	5335	10.56
358.70	2801	5.54
359.65	3	0.01
360.55	253	0.50
361.55	19	0.04
362.55	97	0.19
363.55	62	0.12
364.70	612	1.21
366.90	1248	2.47
367.85	7	0.01
368.85	4	0.01
369.85	18	0.04
371.00	4764	9.43
372.50	275	0.54
373.10	68	0.13
373.40	60	0.12
374.35	554	1.10
375.25	43	0.09
376.25	153	0.30
377.25	52	0.10
378.25	28	0.06
379.25	22	0.04
380.25	50	0.10
381.05	29	0.06
381.90	1470	2.91
383.70	623	1.23
384.85	23	0.05
385.85	9	0.02
386.85	19	0.04
387.70	120	0.24
388.85	352	0.70
389.85	1	0.00
390.85	14	0.03
391.85	41	0.08
392.85	32	0.06
393.85	84	0.17
397.20	430	0.85
398.15	532	1.05
399.45	746	1.48
400.35	98	0.19
401.35	16	0.03
402.25	3	0.01
403.10	1223	2.42
403.60	1750	3.46
404.15	3193	6.32
405.15	30	0.06
406.15	52	0.10
407.15	3	0.01
408.15	10	0.02
409.15	9	0.02
410.15	62	0.12
411.15	3	0.01
412.45	667	1.32
414.85	1410	2.79
416.60	124	0.25
417.55	76	0.15
418.55	14	0.03
419.55	20	0.04
420.55	7	0.01
421.55	10	0.02
422.55	384	0.76
423.30	4467	8.84
423.90	1905	3.77
424.95	2190	4.33
425.95	24	0.05
427.20	1360	2.69
428.25	377	0.75
429.25	116	0.23
430.35	847	1.68
431.00	894	1.77
433.05	299	0.59
434.20	510	1.01
435.15	70	0.14
436.15	26	0.05
437.20	1558	3.08
439.05	137	0.27
441.20	248	0.49
442.25	30	0.06
443.25	39	0.08
444.25	15	0.03
445.65	1516	3.00
446.65	92	0.18
447.95	527	1.04
448.85	102	0.20
449.70	5341	10.57
450.75	559	1.11
453.65	1741	3.44
454.65	12	0.02
458.65	47	0.09
459.65	10	0.02
460.65	52	0.10
461.85	16318	32.29
463.00	3328	6.58
464.05	7	0.01
465.00	1004	1.99
466.95	5	0.01
468.95	38	0.08
471.30	605	1.20
474.75	63	0.12
476.75	25	0.05
477.75	1885	3.73
478.65	49	0.10
479.75	3	0.01
481.15	531	1.05
482.15	8	0.02
485.35	52	0.10
486.25	1	0.00
488.40	33	0.07
489.00	1196	2.37
490.45	499	0.99
491.25	63	0.12
491.70	561	1.11
492.45	52	0.10
497.25	2953	5.84
498.25	15	0.03
499.25	1	0.00
500.60	799	1.58
501.45	1	0.00
502.45	45	0.09
505.75	816	1.61
506.75	8	0.02
507.75	1	0.00
509.05	2728	5.40
511.75	125	0.25
513.20	889	1.76
514.15	4	0.01
515.15	5	0.01
518.05	406	0.80
519.20	959	1.90
520.85	4019	7.95
523.15	1178	2.33
525.85	49	0.10
526.75	4	0.01
529.05	94	0.19
529.60	784	1.55
530.90	1360	2.69
531.30	648	1.28
532.10	1196	2.37
534.05	14	0.03
535.00	2932	5.80
535.95	117	0.23
536.85	15	0.03
537.85	2	0.00
539.40	568	1.12
541.35	3	0.01
542.35	20	0.04
544.10	551	1.09
544.65	1059	2.10
546.20	56	0.11
546.50	41	0.08
547.35	9	0.02
548.20	61	0.12
549.15	5	0.01
550.05	1	0.00
550.85	1190	2.35
552.85	66	0.13
553.85	10	0.02
555.85	19	0.04
557.15	286	0.57
557.85	5	0.01
558.65	1963	3.88
559.30	1501	2.97
560.35	7	0.01
565.25	17	0.03
566.20	85	0.17
566.95	12	0.02
567.80	54	0.11
568.65	16	0.03
569.45	61	0.12
570.45	43	0.09
571.45	24	0.05
572.45	5	0.01
573.35	1156	2.29
574.35	59	0.12
576.35	39	0.08
577.35	5	0.01
578.35	11	0.02
579.35	8	0.02
580.35	1	0.00
581.60	97	0.19
582.55	34	0.07
584.55	5	0.01
585.55	2	0.00
586.55	1	0.00
587.55	4	0.01
588.55	4	0.01
589.55	8	0.02
590.55	80	0.16
591.55	63	0.12
595.35	4	0.01
596.15	177	0.35
597.00	1881	3.72
598.05	1	0.00
599.05	1	0.00
601.05	1968	3.89
602.05	205	0.41
603.05	19	0.04
604.10	323	0.64
604.80	627	1.24
607.10	2044	4.04
609.05	104	0.21
610.05	6	0.01
611.35	802	1.59
612.35	1706	3.38
614.35	3	0.01
616.35	6	0.01
618.60	1328	2.63
620.55	53	0.10
621.55	2	0.00
623.15	4448	8.80
624.15	25	0.05
625.05	7	0.01
626.00	80	0.16
627.30	694	1.37
628.25	36	0.07
629.25	1	0.00
630.25	25	0.05
631.05	2	0.00
631.80	348	0.69
632.85	7	0.01
633.85	27	0.05
635.15	298	0.59
636.15	20	0.04
638.15	2	0.00
641.20	177	0.35
643.15	13	0.03
643.90	83	0.16
645.15	35	0.07
645.55	33	0.07
646.55	10	0.02
648.55	7	0.01
649.55	27	0.05
650.55	46	0.09
652.55	10	0.02
654.55	5	0.01
655.55	13	0.03
656.55	24	0.05
657.55	9	0.02
658.55	36	0.07
659.45	10	0.02
660.30	937	1.85
660.75	849	1.68
662.25	1242	2.46
663.05	5615	11.11
663.55	1503	2.97
664.55	32	0.06
665.55	29	0.06
666.55	9	0.02
668.55	72	0.14
669.55	20	0.04
670.70	99	0.20
671.10	36	0.07
672.15	46	0.09
674.60	1491	2.95
675.05	599	1.19
677.15	571	1.13
679.90	110	0.22
680.50	144	0.28
681.45	52	0.10
682.45	32	0.06
683.45	58	0.11
684.45	4	0.01
686.30	4569	9.04
687.35	5	0.01
688.45	28714	56.81
689.45	13626	26.96
690.15	5575	11.03
690.60	1375	2.72
691.40	1135	2.25
691.90	97	0.19
692.75	3	0.01
693.55	439	0.87
694.55	64	0.13
695.55	23	0.05
696.55	1	0.00
697.55	5	0.01
699.55	77	0.15
700.55	51	0.10
701.45	9	0.02
702.25	2758	5.46
703.25	3	0.01
704.25	2533	5.01
705.45	911	1.80
706.45	30	0.06
707.45	35	0.07
708.45	8	0.02
710.55	1778	3.52
711.55	68	0.13
712.55	3	0.01
713.90	1813	3.59
714.45	6162	12.19
715.60	6449	12.76
716.55	915	1.81
717.40	243	0.48
719.15	137	0.27
720.15	3	0.01
721.15	19	0.04
724.15	3	0.01
725.50	105	0.21
726.55	9	0.02
728.55	9	0.02
733.50	1120	2.22
735.35	306	0.61
736.35	1	0.00
737.35	6	0.01
739.35	37	0.07
740.35	29	0.06
741.65	58	0.11
743.65	18	0.04
745.65	1	0.00
747.65	4	0.01
750.90	46	0.09
753.90	190	0.38
754.50	3960	7.84
756.50	84	0.17
756.90	35	0.07
757.85	3	0.01
758.65	243	0.48
759.80	48	0.09
760.75	3	0.01
762.20	1151	2.28
764.25	30	0.06
767.25	42	0.08
769.25	14	0.03
771.15	106	0.21
772.15	15	0.03
773.15	7	0.01
774.35	62	0.12
776.35	33	0.07
777.35	57	0.11
779.35	20	0.04
780.25	8	0.02
781.00	81	0.16
782.05	53	0.10
783.05	66	0.13
783.95	37	0.07
784.85	116	0.23
786.05	429	0.85
787.30	805	1.59
788.45	1750	3.46
790.85	73	0.14
793.10	57	0.11
794.05	48	0.09
795.05	4	0.01
796.05	16	0.03
797.05	3	0.01
798.35	393	0.78
799.35	8	0.02
Event	2
