[MS Spectrum]
# of Peaks	681
Raw Spectrum	[7.035],(scan:[2815])
Background	No Background Spectrum
Base Peak	m/z 156.85 (Inten : 460,088)
m/z	Absolute Intensity	Relative Intensity
50.65	24	0.01
54.65	7	0.00
55.65	17	0.00
57.65	1	0.00
58.70	473	0.10
59.35	832	0.18
63.35	4	0.00
64.35	5	0.00
65.35	11	0.00
66.35	7	0.00
67.35	63	0.01
68.35	17	0.00
69.35	4	0.00
71.35	6	0.00
73.30	368	0.08
77.35	19	0.00
78.25	3087	0.67
79.05	125928	27.37
80.05	1377	0.30
81.00	7638	1.66
81.95	22	0.00
83.00	9614	2.09
84.00	635	0.14
84.90	166	0.04
86.50	396	0.09
87.05	2198	0.48
88.25	142	0.03
88.65	16	0.00
89.65	11	0.00
91.45	217	0.05
95.70	233	0.05
96.35	451	0.10
97.40	768	0.17
99.00	702	0.15
100.15	8517	1.85
101.15	31	0.01
102.15	1	0.00
103.15	1	0.00
104.15	18	0.00
105.05	336	0.07
107.95	341	0.07
109.05	12	0.00
110.15	675	0.15
110.50	266	0.06
113.70	234	0.05
114.95	1674	0.36
115.85	7	0.00
116.85	34	0.01
118.85	866	0.19
119.95	373163	81.11
120.80	33284	7.23
122.00	27723	6.03
122.85	755	0.16
123.65	495	0.11
124.10	1000	0.22
125.75	544	0.12
126.15	479	0.10
128.90	763	0.17
129.30	305	0.07
130.95	189	0.04
134.15	809	0.18
135.15	26	0.01
137.10	905	0.20
137.85	393	0.09
138.20	184	0.04
139.00	605	0.13
139.35	230	0.05
140.35	43	0.01
142.20	201	0.04
142.50	160	0.03
144.00	49	0.01
144.80	237	0.05
145.30	87	0.02
146.15	786	0.17
146.85	111	0.02
148.15	129	0.03
150.15	2	0.00
151.05	14	0.00
151.90	439	0.10
152.95	33	0.01
154.65	193	0.04
155.65	245	0.05
156.85	460088	100.00
157.85	16540	3.59
158.85	62258	13.53
159.55	3491	0.76
160.35	755	0.16
160.95	2035	0.44
162.80	651	0.14
164.05	220	0.05
164.90	96	0.02
165.40	63	0.01
168.30	155	0.03
169.25	444	0.10
169.80	832	0.18
170.35	100	0.02
170.90	77	0.02
171.95	735	0.16
172.45	938	0.20
173.65	233	0.05
174.25	1726	0.38
174.95	1482	0.32
175.75	298	0.06
178.75	8	0.00
179.75	27	0.01
182.20	705	0.15
183.25	26	0.01
184.30	716	0.16
185.10	368	0.08
185.65	372	0.08
187.00	5268	1.14
187.70	2483	0.54
188.20	278	0.06
189.25	32	0.01
193.25	38	0.01
194.15	3	0.00
195.00	954	0.21
196.15	802	0.17
197.15	33	0.01
198.25	3901	0.85
199.10	1460	0.32
199.85	476	0.10
200.30	137	0.03
201.90	1206	0.26
202.85	3	0.00
203.85	60	0.01
204.85	93	0.02
208.80	568	0.12
211.70	1267	0.28
212.20	1607	0.35
213.05	22	0.00
213.85	1973	0.43
215.85	2	0.00
217.20	266	0.06
219.65	502	0.11
221.00	32	0.01
221.75	1046	0.23
223.95	607	0.13
225.10	2906	0.63
225.80	1740	0.38
226.45	126	0.03
227.00	2060	0.45
227.55	472	0.10
228.75	937	0.20
230.75	15	0.00
232.60	117	0.03
233.55	2	0.00
234.90	1093	0.24
236.00	790	0.17
236.75	100	0.02
237.65	18	0.00
238.40	59	0.01
239.40	912	0.20
239.95	367	0.08
240.95	434	0.09
242.15	437	0.09
242.85	213	0.05
243.50	80	0.02
244.95	340	0.07
245.75	200	0.04
246.75	2	0.00
247.75	9	0.00
249.05	1474	0.32
252.00	910	0.20
253.45	2141	0.47
254.30	777	0.17
254.85	249	0.05
255.25	184	0.04
256.25	58	0.01
257.25	4	0.00
258.25	17	0.00
259.25	3	0.00
260.85	460	0.10
261.40	338	0.07
262.00	611	0.13
263.05	93	0.02
264.15	519	0.11
265.95	695	0.15
266.85	14	0.00
267.65	2203	0.48
268.80	1804	0.39
269.65	1502	0.33
270.55	26	0.01
271.75	302	0.07
272.35	386	0.08
273.20	2163	0.47
274.25	7	0.00
275.85	4484	0.97
277.65	1815	0.39
278.50	1893	0.41
279.45	2773	0.60
280.20	13162	2.86
283.05	1102	0.24
283.80	104	0.02
284.75	4	0.00
285.55	10	0.00
286.30	1051	0.23
290.20	965	0.21
291.00	364	0.08
291.60	1464	0.32
292.25	380	0.08
292.95	2298	0.50
293.85	2334	0.51
294.65	446	0.10
295.40	2012	0.44
296.35	16	0.00
297.30	242	0.05
297.90	542	0.12
298.30	1160	0.25
299.10	1321	0.29
301.65	2018	0.44
302.80	139	0.03
305.10	354	0.08
306.15	326	0.07
307.10	1391	0.30
307.85	1504	0.33
308.25	1124	0.24
308.85	2823	0.61
309.40	1515	0.33
309.95	1915	0.42
310.35	1945	0.42
311.00	2002	0.44
311.60	1614	0.35
312.55	3203	0.70
313.30	884	0.19
313.90	2772	0.60
314.95	331	0.07
316.15	2804	0.61
317.40	1426	0.31
318.15	932	0.20
318.60	44	0.01
319.75	625	0.14
320.30	199	0.04
321.00	156	0.03
322.15	1003	0.22
323.00	1641	0.36
324.10	562	0.12
325.00	1875	0.41
326.75	477	0.10
327.45	396	0.09
328.05	665	0.14
328.95	1641	0.36
330.10	1343	0.29
330.95	632	0.14
331.30	282	0.06
331.60	248	0.05
333.15	212	0.05
334.10	266	0.06
335.10	790	0.17
336.00	238	0.05
336.60	960	0.21
337.20	165	0.04
338.75	171	0.04
339.30	318	0.07
340.00	90	0.02
341.10	3734	0.81
341.90	1782	0.39
343.15	448	0.10
344.10	1497	0.33
344.80	406	0.09
345.90	771	0.17
346.35	766	0.17
348.35	934	0.20
349.35	17	0.00
350.85	475	0.10
351.25	422	0.09
352.15	671	0.15
352.80	1147	0.25
353.30	2983	0.65
354.20	652	0.14
354.70	541	0.12
355.75	195	0.04
357.05	1844	0.40
358.00	2047	0.44
358.95	75	0.02
360.10	336	0.07
360.80	668	0.15
361.75	40	0.01
363.10	1058	0.23
364.05	71	0.02
366.05	12	0.00
367.40	912	0.20
368.45	589	0.13
369.00	112	0.02
369.40	323	0.07
370.25	1424	0.31
371.10	679	0.15
371.85	2484	0.54
372.70	296	0.06
373.20	191	0.04
374.20	1185	0.26
375.25	184	0.04
376.20	1272	0.28
377.05	3	0.00
377.90	683	0.15
378.95	28	0.01
380.20	1778	0.39
381.25	23	0.00
384.25	827	0.18
385.35	541	0.12
385.85	251	0.05
386.85	62	0.01
388.60	278	0.06
388.95	247	0.05
390.05	2597	0.56
391.00	1076	0.23
391.85	57	0.01
392.75	496	0.11
393.25	260	0.06
393.95	1045	0.23
394.75	417	0.09
395.75	541	0.12
398.20	974	0.21
398.80	366	0.08
399.35	708	0.15
400.15	14	0.00
401.00	813	0.18
401.95	22	0.00
402.95	7	0.00
404.95	3079	0.67
407.00	1206	0.26
408.15	122	0.03
408.65	188	0.04
409.25	93	0.02
409.60	421	0.09
410.65	35	0.01
412.65	10	0.00
413.65	487	0.11
415.00	33020	7.18
416.10	3552	0.77
416.80	1332	0.29
417.30	1101	0.24
418.25	5	0.00
419.10	313	0.07
419.50	447	0.10
420.00	112	0.02
421.05	1361	0.30
422.10	772	0.17
423.10	1484	0.32
424.15	10	0.00
426.50	1098	0.24
427.55	109	0.02
428.80	257	0.06
429.25	439	0.10
430.25	11	0.00
431.25	1925	0.42
432.20	14680	3.19
432.95	6553	1.42
433.75	153	0.03
435.20	3178	0.69
436.50	197	0.04
437.20	1644	0.36
438.55	485	0.11
439.35	967	0.21
440.25	8	0.00
441.20	487	0.11
442.65	1644	0.36
444.65	34	0.01
446.15	52364	11.38
447.40	9202	2.00
448.10	2214	0.48
448.95	654	0.14
449.95	90	0.02
451.05	203	0.04
452.35	203	0.04
453.05	727	0.16
454.05	16	0.00
455.00	745	0.16
455.95	47	0.01
457.05	533	0.12
458.00	2070	0.45
458.80	940	0.20
460.05	58529	12.72
460.95	13219	2.87
462.05	977	0.21
463.30	1231	0.27
464.10	15748	3.42
465.05	2617	0.57
466.05	1935	0.42
468.05	16	0.00
469.05	10	0.00
470.05	8	0.00
470.95	68	0.01
471.90	290	0.06
472.40	167	0.04
473.15	2121	0.46
474.15	3	0.00
475.15	72	0.02
476.20	926	0.20
477.15	2566	0.56
477.80	1234	0.27
478.30	84	0.02
478.95	554	0.12
480.05	124	0.03
482.20	895	0.19
483.10	5779	1.26
484.15	829	0.18
485.50	125	0.03
487.25	78	0.02
488.05	1659	0.36
488.95	130	0.03
491.50	145	0.03
493.70	2673	0.58
494.50	815	0.18
496.05	1356	0.29
496.95	16	0.00
498.05	249	0.05
499.05	26	0.01
499.95	39	0.01
501.05	2240	0.49
502.05	3435	0.75
503.00	1576	0.34
503.40	854	0.19
504.25	10	0.00
505.00	2924	0.64
505.65	2089	0.45
506.25	531	0.12
506.90	52	0.01
507.85	5	0.00
509.30	1886	0.41
510.25	19	0.00
511.65	2402	0.52
512.25	252	0.05
512.95	1360	0.30
513.95	103	0.02
514.45	139	0.03
515.50	794	0.17
516.05	411	0.09
516.60	686	0.15
517.55	55	0.01
520.90	196	0.04
521.75	3047	0.66
522.15	2383	0.52
522.65	531	0.12
523.85	387	0.08
524.35	289	0.06
525.25	30	0.01
526.05	202	0.04
526.40	97	0.02
526.95	333	0.07
528.20	2317	0.50
529.15	16	0.00
530.15	2	0.00
533.00	39	0.01
533.50	134	0.03
534.45	30	0.01
535.25	1497	0.33
536.30	3731	0.81
536.80	2842	0.62
538.15	906	0.20
540.15	55	0.01
541.15	8	0.00
542.10	856	0.19
543.05	7	0.00
544.35	116	0.03
545.15	29	0.01
546.00	1024	0.22
547.20	1241	0.27
548.05	836	0.18
548.90	4542	0.99
549.70	8401	1.83
550.35	1282	0.28
551.15	539	0.12
552.10	1867	0.41
556.05	11	0.00
557.20	1085	0.24
560.00	803	0.17
560.50	443	0.10
561.05	293	0.06
561.80	82	0.02
562.35	717	0.16
563.45	256	0.06
564.45	28	0.01
566.80	215	0.05
567.75	1149	0.25
568.55	1	0.00
569.40	220	0.05
569.85	218	0.05
570.85	11	0.00
571.85	2	0.00
572.80	174	0.04
574.10	368	0.08
575.40	4237	0.92
575.90	957	0.21
577.20	1573	0.34
578.55	1060	0.23
579.55	4	0.00
580.75	302	0.07
581.30	290	0.06
581.80	297	0.06
584.35	281	0.06
589.10	318	0.07
589.95	1300	0.28
591.05	2154	0.47
592.95	53	0.01
593.80	656	0.14
596.25	351	0.08
596.90	40	0.01
598.25	2181	0.47
599.90	614	0.13
601.50	110	0.02
602.20	330	0.07
602.60	137	0.03
603.50	247	0.05
604.80	1143	0.25
605.95	900	0.20
606.80	201	0.04
607.45	1154	0.25
608.25	51	0.01
609.05	1988	0.43
609.55	614	0.13
609.95	508	0.11
611.20	617	0.13
612.15	10	0.00
613.15	7	0.00
614.10	400	0.09
616.35	1509	0.33
617.85	208	0.05
621.25	355	0.08
622.10	590	0.13
622.90	134	0.03
623.35	286	0.06
623.95	459	0.10
624.40	755	0.16
625.55	261	0.06
625.90	698	0.15
626.95	24	0.01
628.35	905	0.20
629.15	611	0.13
630.15	4	0.00
631.00	350	0.08
632.00	421	0.09
632.95	4	0.00
635.35	788	0.17
635.85	1801	0.39
636.85	9	0.00
637.85	4	0.00
638.85	30	0.01
641.90	387	0.08
643.20	465	0.10
644.15	63	0.01
644.95	147	0.03
646.95	34	0.01
647.95	5	0.00
648.95	4	0.00
649.95	2	0.00
651.20	84	0.02
652.15	6	0.00
654.90	519	0.11
656.00	185	0.04
656.95	20	0.00
658.55	891	0.19
660.00	123	0.03
661.30	211	0.05
662.45	1570	0.34
663.20	4154	0.90
664.45	2933	0.64
665.15	353	0.08
665.85	1380	0.30
667.40	333	0.07
667.90	75	0.02
669.85	3	0.00
671.85	6	0.00
673.45	432	0.09
674.50	505	0.11
675.20	954	0.21
676.15	3204	0.70
676.60	1044	0.23
677.55	4	0.00
678.55	850	0.18
679.45	1142	0.25
680.60	1065	0.23
682.40	163	0.04
684.15	1169	0.25
685.25	1254	0.27
687.15	236	0.05
688.15	1924	0.42
689.20	5842	1.27
690.30	41495	9.02
691.25	12819	2.79
692.20	5000	1.09
693.40	2568	0.56
694.05	1126	0.24
694.95	3897	0.85
695.75	374	0.08
698.05	1439	0.31
698.70	308	0.07
699.35	400	0.09
701.15	121	0.03
702.40	2719	0.59
703.15	402	0.09
704.10	272	0.06
704.90	218	0.05
705.30	326	0.07
706.10	233	0.05
706.45	217	0.05
707.65	1729	0.38
708.20	3901	0.85
709.15	3685	0.80
710.05	983	0.21
711.45	164	0.04
712.05	228	0.05
712.50	181	0.04
713.55	23	0.00
715.70	3136	0.68
716.45	10216	2.22
717.25	5517	1.20
718.50	1163	0.25
719.45	15	0.00
722.30	201	0.04
722.95	215	0.05
724.10	565	0.12
724.55	224	0.05
725.65	558	0.12
726.25	829	0.18
727.25	513	0.11
728.40	613	0.13
729.80	1400	0.30
730.50	678	0.15
733.70	764	0.17
734.75	24	0.01
736.15	96	0.02
737.15	3	0.00
738.60	149	0.03
739.75	617	0.13
740.65	19	0.00
741.55	2104	0.46
742.65	717	0.16
743.25	927	0.20
743.70	1087	0.24
745.90	383	0.08
746.85	16	0.00
748.35	274	0.06
749.80	196	0.04
750.85	17	0.00
752.40	444	0.10
754.05	25	0.01
754.55	601	0.13
754.95	648	0.14
756.15	633	0.14
757.15	17	0.00
759.00	124	0.03
759.55	680	0.15
760.45	257	0.06
761.95	664	0.14
763.00	927	0.20
764.30	385	0.08
764.95	338	0.07
766.20	416	0.09
766.90	594	0.13
768.35	758	0.16
770.40	154	0.03
770.95	966	0.21
771.60	249	0.05
772.70	68	0.01
773.85	867	0.19
775.85	18	0.00
778.50	598	0.13
779.15	248	0.05
779.65	483	0.10
780.35	598	0.13
781.35	147	0.03
781.75	647	0.14
782.20	97	0.02
783.15	8	0.00
784.30	7713	1.68
785.25	4230	0.92
786.25	6	0.00
787.25	208	0.05
788.35	1151	0.25
789.60	1752	0.38
790.45	1091	0.24
791.00	416	0.09
791.60	158	0.03
792.20	372	0.08
793.35	1688	0.37
793.80	603	0.13
794.65	553	0.12
797.50	632	0.14
798.55	286	0.06
799.50	1577	0.34
Event	1
