[MS Spectrum]
# of Peaks	735
Raw Spectrum	[7.617],(scan:[3048])
Background	No Background Spectrum
Base Peak	m/z 54.10 (Inten : 52,650)
m/z	Absolute Intensity	Relative Intensity
51.65	612	1.16
52.65	4298	8.16
53.55	6222	11.82
54.10	52650	100.00
56.85	34856	66.20
56.95	5149	9.78
57.75	4331	8.23
58.90	8933	16.97
60.00	7133	13.55
61.00	5089	9.67
62.10	5721	10.87
63.20	5675	10.78
64.25	5354	10.17
64.85	2169	4.12
66.00	8555	16.25
66.85	2238	4.25
67.80	7457	14.16
68.85	2102	3.99
69.20	8076	15.34
70.45	4890	9.29
71.60	4926	9.36
72.65	4427	8.41
73.95	2383	4.53
74.70	3623	6.88
75.45	2294	4.36
76.30	3996	7.59
77.55	4622	8.78
78.95	3292	6.25
79.75	1483	2.82
80.60	3131	5.95
81.80	1390	2.64
82.35	1715	3.26
83.15	3577	6.79
83.95	904	1.72
84.50	1524	2.89
85.00	1300	2.47
85.50	1112	2.11
86.05	1435	2.73
86.60	1072	2.04
87.65	1550	2.94
88.20	1109	2.11
89.25	1393	2.65
89.80	966	1.83
90.35	946	1.80
90.80	1086	2.06
91.30	1004	1.91
91.85	1252	2.38
92.40	988	1.88
92.90	763	1.45
93.50	918	1.74
94.00	802	1.52
94.45	580	1.10
95.00	1262	2.40
95.55	698	1.33
96.05	991	1.88
96.60	884	1.68
97.10	862	1.64
97.65	871	1.65
98.20	744	1.41
98.70	804	1.53
99.25	1017	1.93
99.80	863	1.64
100.30	714	1.36
100.80	594	1.13
101.40	749	1.42
101.85	500	0.95
102.35	858	1.63
102.90	530	1.01
103.45	527	1.00
103.95	742	1.41
104.60	871	1.65
105.05	534	1.01
105.55	680	1.29
106.05	466	0.89
106.65	512	0.97
107.15	802	1.52
107.70	491	0.93
108.25	509	0.97
108.70	583	1.11
109.25	733	1.39
110.25	775	1.47
110.75	426	0.81
111.35	279	0.53
112.45	6350	12.06
113.30	927	1.76
113.95	382	0.73
114.60	440	0.84
115.05	289	0.55
115.65	381	0.72
116.15	571	1.08
117.20	380	0.72
117.75	428	0.81
119.10	960	1.82
119.80	547	1.04
120.30	259	0.49
120.95	436	0.83
121.40	471	0.89
121.95	479	0.91
122.95	730	1.39
123.55	458	0.87
124.00	149	0.28
124.45	443	0.84
125.10	271	0.51
125.75	343	0.65
126.10	189	0.36
127.05	632	1.20
127.70	259	0.49
128.40	202	0.38
129.05	898	1.71
129.85	318	0.60
130.30	328	0.62
130.90	135	0.26
131.40	178	0.34
132.00	165	0.31
132.55	479	0.91
133.05	200	0.38
133.50	278	0.53
134.00	543	1.03
134.60	294	0.56
135.50	601	1.14
136.15	222	0.42
136.80	213	0.40
137.20	288	0.55
137.75	221	0.42
138.35	603	1.15
138.85	118	0.22
139.90	354	0.67
141.00	381	0.72
141.45	231	0.44
141.90	275	0.52
142.45	160	0.30
142.95	313	0.59
143.55	45	0.09
144.10	213	0.40
144.50	166	0.32
145.10	259	0.49
145.70	175	0.33
146.15	371	0.70
146.60	150	0.28
147.30	219	0.42
147.75	169	0.32
148.20	248	0.47
148.85	68	0.13
149.30	404	0.77
149.90	101	0.19
150.45	277	0.53
150.90	212	0.40
152.45	248	0.47
152.90	39	0.07
153.40	171	0.32
154.05	208	0.40
154.55	166	0.32
155.25	362	0.69
155.60	174	0.33
156.25	143	0.27
156.70	238	0.45
157.35	128	0.24
157.90	125	0.24
158.30	302	0.57
159.45	282	0.54
159.80	90	0.17
161.00	226	0.43
161.45	135	0.26
162.00	230	0.44
162.50	73	0.14
163.05	184	0.35
163.60	168	0.32
164.10	162	0.31
164.75	81	0.15
165.15	57	0.11
166.10	790	1.50
166.80	104	0.20
167.80	180	0.34
168.75	183	0.35
169.90	286	0.54
170.50	132	0.25
170.95	88	0.17
171.55	32	0.06
172.05	91	0.17
172.65	61	0.12
173.00	171	0.32
173.85	453	0.86
174.65	149	0.28
175.85	200	0.38
176.80	101	0.19
177.35	124	0.24
178.00	44	0.08
179.40	349	0.66
179.95	53	0.10
180.30	81	0.15
181.05	356	0.68
182.05	205	0.39
182.55	70	0.13
183.10	128	0.24
183.65	211	0.40
184.15	84	0.16
184.85	273	0.52
185.20	104	0.20
186.25	141	0.27
186.70	83	0.16
187.30	133	0.25
187.85	190	0.36
189.40	33	0.06
189.90	126	0.24
191.00	286	0.54
191.60	103	0.20
192.60	214	0.41
193.70	235	0.45
194.10	59	0.11
194.95	22	0.04
195.80	182	0.35
196.20	108	0.21
197.25	29	0.06
198.25	245	0.47
198.95	157	0.30
200.05	175	0.33
201.10	78	0.15
201.65	181	0.34
202.00	123	0.23
202.65	173	0.33
203.15	83	0.16
204.45	163	0.31
205.35	92	0.17
205.75	124	0.24
206.75	12	0.02
207.75	30	0.06
208.65	43	0.08
209.45	139	0.26
211.60	155	0.29
212.15	207	0.39
212.60	206	0.39
214.00	299	0.57
215.05	26	0.05
216.05	50	0.09
217.05	6	0.01
217.90	75	0.14
218.55	263	0.50
219.55	68	0.13
220.55	13	0.02
221.45	5	0.01
222.25	132	0.25
223.05	8	0.02
223.85	219	0.42
224.25	131	0.25
225.15	15	0.03
225.95	103	0.20
226.75	15	0.03
227.50	82	0.16
228.50	233	0.44
229.25	31	0.06
230.10	119	0.23
232.20	76	0.14
232.80	68	0.13
233.25	76	0.14
233.85	101	0.19
234.85	90	0.17
235.95	80	0.15
236.95	56	0.11
237.75	18	0.03
238.60	152	0.29
239.35	31	0.06
240.10	83	0.16
242.15	52	0.10
242.95	25	0.05
243.80	172	0.33
244.75	41	0.08
246.75	49	0.09
248.75	60	0.11
249.60	86	0.16
250.45	3	0.01
251.20	204	0.39
252.65	312	0.59
253.75	21	0.04
254.75	28	0.05
255.75	14	0.03
256.95	912	1.73
257.95	9	0.02
259.15	324	0.62
260.15	71	0.13
261.15	27	0.05
263.15	52	0.10
265.00	168	0.32
265.95	101	0.19
267.95	31	0.06
268.85	65	0.12
269.75	189	0.36
270.90	81	0.15
271.30	47	0.09
271.85	136	0.26
272.85	61	0.12
274.40	62	0.12
275.35	93	0.18
276.60	237	0.45
277.05	90	0.17
277.65	83	0.16
278.15	243	0.46
279.30	136	0.26
279.75	202	0.38
280.75	39	0.07
281.75	80	0.15
282.75	64	0.12
283.75	8	0.02
284.75	6	0.01
286.05	260	0.49
287.05	6	0.01
288.20	101	0.19
290.25	93	0.18
291.25	59	0.11
292.25	41	0.08
293.25	29	0.06
294.25	10	0.02
295.25	8	0.02
296.30	57	0.11
296.60	76	0.14
297.65	32	0.06
298.65	69	0.13
299.65	2	0.00
300.65	43	0.08
301.95	163	0.31
302.75	736	1.40
304.05	147	0.28
305.10	308	0.58
307.05	5	0.01
308.30	144	0.27
308.70	69	0.13
310.30	1052	2.00
311.45	193	0.37
311.95	145	0.28
312.95	14	0.03
313.95	62	0.12
315.10	162	0.31
316.05	34	0.06
317.05	26	0.05
318.05	107	0.20
320.05	4	0.01
322.05	141	0.27
323.10	97	0.18
323.55	141	0.27
324.55	40	0.08
325.70	120	0.23
326.20	71	0.13
328.05	68	0.13
328.85	155	0.29
329.30	118	0.22
331.15	9	0.02
331.95	111	0.21
332.45	75	0.14
333.45	50	0.09
334.45	9	0.02
336.10	126	0.24
337.15	6	0.01
338.15	78	0.15
339.55	108	0.21
341.00	109	0.21
341.95	28	0.05
342.95	50	0.09
343.95	68	0.13
345.95	15	0.03
347.65	110	0.21
348.75	48	0.09
350.45	131	0.25
351.95	194	0.37
353.05	108	0.21
353.95	285	0.54
354.85	5147	9.78
356.05	169	0.32
357.15	14	0.03
359.15	17	0.03
360.15	9	0.02
361.15	14	0.03
362.15	31	0.06
363.65	138	0.26
365.25	134	0.25
366.35	118	0.22
367.35	69	0.13
369.35	13	0.02
370.35	22	0.04
371.35	4	0.01
372.35	18	0.03
374.35	41	0.08
375.90	57	0.11
376.25	73	0.14
377.25	44	0.08
378.25	43	0.08
379.25	18	0.03
380.25	57	0.11
382.25	15	0.03
384.35	96	0.18
384.80	47	0.09
385.85	17	0.03
386.85	18	0.03
388.05	57	0.11
388.45	64	0.12
389.45	12	0.02
390.65	98	0.19
391.65	35	0.07
392.65	33	0.06
393.65	83	0.16
394.65	5	0.01
395.95	1727	3.28
396.70	5792	11.00
397.90	2664	5.06
398.75	14721	27.96
399.70	3313	6.29
400.75	47	0.09
402.25	159	0.30
403.25	15	0.03
404.25	113	0.21
405.25	4	0.01
406.15	12	0.02
407.05	2992	5.68
408.20	22	0.04
408.55	49	0.09
409.75	134	0.25
410.15	56	0.11
412.15	51	0.10
413.30	219	0.42
415.25	263	0.50
416.15	35	0.07
416.80	57	0.11
417.95	8	0.02
419.25	78	0.15
419.65	24	0.05
420.55	49	0.09
421.40	142	0.27
421.80	72	0.14
422.75	75	0.14
423.75	9	0.02
424.75	12	0.02
426.75	31	0.06
427.75	31	0.06
428.70	107	0.20
429.30	154	0.29
430.25	46	0.09
431.25	16	0.03
432.80	116	0.22
433.30	44	0.08
434.05	74	0.14
434.45	69	0.13
435.45	1	0.00
436.60	110	0.21
438.55	33	0.06
440.30	81	0.15
441.40	168	0.32
443.35	18	0.03
445.60	48	0.09
446.45	197	0.37
447.55	70	0.13
450.60	916	1.74
451.10	4060	7.71
452.45	139	0.26
453.00	1825	3.47
454.05	3	0.01
457.00	36	0.07
458.05	64	0.12
459.45	115	0.22
465.65	106	0.20
466.35	3	0.01
467.25	112	0.21
468.15	1	0.00
469.05	18	0.03
470.00	166	0.32
473.00	37	0.07
473.35	47	0.09
474.85	43	0.08
476.15	120	0.23
476.60	32	0.06
478.55	9	0.02
479.55	17	0.03
480.85	95	0.18
481.85	14	0.03
482.65	15	0.03
483.55	56	0.11
483.90	110	0.21
485.10	120	0.23
487.05	3	0.01
488.05	37	0.07
490.05	7	0.01
491.05	38	0.07
493.05	49	0.09
494.05	9	0.02
495.05	22	0.04
496.60	4539	8.62
497.55	936	1.78
498.85	4803	9.12
499.35	2265	4.30
499.80	493	0.94
501.45	135	0.26
502.80	224	0.43
503.65	35	0.07
504.55	69	0.13
505.55	3	0.01
507.65	70	0.13
508.75	30	0.06
509.70	68	0.13
510.45	4104	7.79
511.50	52	0.10
513.45	11	0.02
516.30	98	0.19
516.65	123	0.23
518.65	29	0.06
519.65	18	0.03
521.65	3	0.01
522.65	8	0.02
523.65	12	0.02
524.45	4	0.01
525.30	129	0.25
527.25	133	0.25
528.25	156	0.30
530.25	15	0.03
531.65	77	0.15
532.15	35	0.07
533.10	118	0.22
534.15	11	0.02
535.15	26	0.05
536.15	17	0.03
537.15	6	0.01
538.15	39	0.07
540.15	17	0.03
541.15	1	0.00
542.25	152	0.29
543.15	6	0.01
543.95	7	0.01
544.80	73	0.14
545.75	16	0.03
546.75	6	0.01
548.35	65	0.12
548.80	126	0.24
549.75	34	0.06
552.75	169	0.32
554.75	29	0.06
556.90	98	0.19
560.10	97	0.18
561.15	9	0.02
562.10	74	0.14
563.05	9	0.02
564.75	116	0.22
567.75	28	0.05
569.05	112	0.21
569.85	7	0.01
570.70	56	0.11
572.20	199	0.38
573.30	66	0.13
573.65	79	0.15
574.20	95	0.18
575.25	42	0.08
576.25	6	0.01
577.25	1	0.00
579.60	108	0.21
581.10	218	0.41
582.25	61	0.12
583.05	41	0.08
583.85	112	0.21
584.85	3	0.01
586.35	82	0.16
587.40	45	0.09
588.45	28	0.05
590.45	14	0.03
591.45	12	0.02
594.80	99	0.19
596.55	150	0.28
597.55	28	0.05
598.75	1135	2.16
599.75	22	0.04
600.75	20	0.04
602.20	93	0.18
603.30	99	0.19
603.75	78	0.15
604.70	45	0.09
605.65	15	0.03
606.50	69	0.13
606.80	60	0.11
607.65	6	0.01
608.50	59	0.11
609.55	17	0.03
610.35	13	0.02
611.20	77	0.15
612.80	46	0.09
613.15	47	0.09
614.15	6	0.01
615.15	4	0.01
616.15	44	0.08
617.15	106	0.20
619.15	115	0.22
619.80	49	0.09
620.15	44	0.08
621.15	38	0.07
622.05	7	0.01
622.85	102	0.19
624.05	177	0.34
625.15	15	0.03
627.15	42	0.08
628.30	60	0.11
629.10	42	0.08
631.20	88	0.17
632.45	1057	2.01
634.05	93	0.18
635.05	49	0.09
636.05	71	0.13
637.50	140	0.27
638.55	39	0.07
640.45	16	0.03
641.20	44	0.08
642.25	1	0.00
644.25	22	0.04
646.00	37	0.07
646.95	15	0.03
647.85	1	0.00
648.60	96	0.18
649.45	24	0.05
650.30	93	0.18
651.80	84	0.16
653.25	223	0.42
654.35	15	0.03
655.35	14	0.03
656.35	143	0.27
657.75	99	0.19
658.20	49	0.09
659.15	7	0.01
660.05	1181	2.24
660.85	1685	3.20
661.85	6	0.01
662.85	14	0.03
664.85	34	0.06
666.85	3	0.01
667.85	17	0.03
669.30	55	0.10
669.80	185	0.35
670.85	27	0.05
672.85	26	0.05
673.85	13	0.02
675.85	21	0.04
678.85	84	0.16
679.70	55	0.10
680.75	32	0.06
681.75	23	0.04
682.75	17	0.03
685.45	99	0.19
686.45	1	0.00
687.45	9	0.02
688.35	4	0.01
689.25	49	0.09
692.25	11	0.02
693.15	16	0.03
694.00	45	0.09
695.05	67	0.13
696.35	63	0.12
696.70	50	0.09
697.55	1	0.00
698.30	125	0.24
699.25	8	0.02
700.15	94	0.18
701.05	20	0.04
702.05	39	0.07
703.05	16	0.03
705.45	156	0.30
709.35	32	0.06
711.25	4	0.01
712.15	870	1.65
712.60	84	0.16
713.15	141	0.27
714.15	27	0.05
715.15	25	0.05
716.15	28	0.05
718.15	4	0.01
719.05	85	0.16
720.05	11	0.02
721.05	5	0.01
722.45	186	0.35
723.55	2	0.00
725.00	248	0.47
726.60	231	0.44
728.00	103	0.20
728.95	12	0.02
729.95	36	0.07
730.95	13	0.02
732.50	1539	2.92
733.45	16	0.03
735.45	9	0.02
736.45	20	0.04
737.45	9	0.02
738.40	180	0.34
739.35	2	0.00
740.50	187	0.36
741.55	3	0.01
742.55	34	0.06
743.55	3	0.01
744.55	1	0.00
745.65	1340	2.55
746.65	19	0.04
747.95	92	0.17
749.10	107	0.20
751.05	42	0.08
752.05	5	0.01
754.05	8	0.02
755.05	9	0.02
755.95	5	0.01
756.85	78	0.15
757.85	21	0.04
758.75	23	0.04
759.60	194	0.37
761.65	34	0.06
762.65	26	0.05
763.65	19	0.04
764.65	8	0.02
765.65	10	0.02
766.65	27	0.05
768.65	65	0.12
770.65	49	0.09
771.65	42	0.08
772.80	195	0.37
773.75	13	0.02
774.55	9	0.02
775.35	164	0.31
776.35	52	0.10
777.35	20	0.04
778.25	3	0.01
779.20	69	0.13
780.15	35	0.07
781.15	28	0.05
782.15	15	0.03
783.15	18	0.03
785.15	53	0.10
786.15	43	0.08
788.15	1	0.00
789.20	167	0.32
790.30	2392	4.54
792.25	84	0.16
793.40	868	1.65
794.60	4496	8.54
796.35	1552	2.95
797.60	2567	4.88
798.45	6	0.01
799.25	200	0.38
799.95	990	1.88
Event	2
