[MS Spectrum]
# of Peaks	771
Raw Spectrum	[7.117],(scan:[2848])
Background	No Background Spectrum
Base Peak	m/z 55.05 (Inten : 30,819)
m/z	Absolute Intensity	Relative Intensity
51.65	36	0.12
52.65	3314	10.75
53.65	6119	19.85
55.05	30819	100.00
56.50	16843	54.65
57.55	12366	40.12
58.55	9745	31.62
59.55	8406	27.28
60.70	6680	21.67
61.75	5657	18.36
62.80	6000	19.47
63.85	5483	17.79
64.45	2170	7.04
65.25	2225	7.22
66.05	8770	28.46
66.90	5447	17.67
67.95	6897	22.38
68.45	2218	7.20
69.55	10711	34.75
70.25	2078	6.74
71.35	7712	25.02
72.15	1741	5.65
72.95	6861	22.26
74.25	3901	12.66
75.35	4507	14.62
76.40	3425	11.11
77.40	4284	13.90
78.15	1302	4.22
79.15	5228	16.96
80.25	1924	6.24
81.05	1155	3.75
81.85	4817	15.63
82.65	1048	3.40
83.65	2745	8.91
84.25	945	3.07
84.75	3088	10.02
86.00	1277	4.14
86.55	1492	4.84
87.65	1521	4.94
88.20	1069	3.47
89.20	1162	3.77
89.70	1159	3.76
90.25	1230	3.99
91.05	2257	7.32
91.80	963	3.12
92.35	1206	3.91
92.90	889	2.88
93.45	1087	3.53
94.25	1765	5.73
95.00	866	2.81
95.55	1006	3.26
96.55	1015	3.29
97.10	727	2.36
97.90	1570	5.09
98.70	730	2.37
99.45	1556	5.05
100.20	674	2.19
100.75	572	1.86
101.25	862	2.80
101.80	697	2.26
102.40	849	2.75
102.90	791	2.57
103.90	690	2.24
104.50	941	3.05
105.00	260	0.84
105.85	1544	5.01
106.55	544	1.77
107.75	1314	4.26
108.60	839	2.72
109.20	528	1.71
109.70	547	1.77
110.25	711	2.31
110.80	513	1.66
111.30	482	1.56
111.85	497	1.61
112.35	611	1.98
113.35	653	2.12
113.85	447	1.45
114.95	637	2.07
115.50	440	1.43
116.00	435	1.41
116.55	568	1.84
117.05	346	1.12
117.75	1097	3.56
118.65	344	1.12
119.65	416	1.35
120.50	647	2.10
121.25	422	1.37
122.25	471	1.53
122.80	379	1.23
123.90	548	1.78
124.90	352	1.14
125.45	460	1.49
126.00	262	0.85
126.60	449	1.46
127.00	239	0.78
128.40	500	1.62
129.20	327	1.06
129.65	246	0.80
130.15	420	1.36
130.70	292	0.95
131.20	326	1.06
131.70	230	0.75
133.20	387	1.26
133.90	240	0.78
134.40	197	0.64
134.90	158	0.51
135.40	157	0.51
135.95	309	1.00
137.00	510	1.65
138.00	307	1.00
138.50	328	1.06
139.15	476	1.54
139.60	162	0.53
140.60	396	1.28
141.65	310	1.01
142.20	276	0.90
143.25	386	1.25
143.75	169	0.55
144.30	149	0.48
144.90	181	0.59
145.35	144	0.47
145.95	380	1.23
146.45	172	0.56
147.00	311	1.01
147.45	252	0.82
148.10	259	0.84
148.50	103	0.33
149.05	292	0.95
149.50	368	1.19
150.05	49	0.16
151.15	219	0.71
151.70	153	0.50
152.15	297	0.96
152.70	231	0.75
153.25	225	0.73
153.75	357	1.16
154.25	216	0.70
154.95	253	0.82
155.65	80	0.26
156.55	379	1.23
157.50	45	0.15
158.05	191	0.62
158.50	131	0.43
159.35	256	0.83
160.10	150	0.49
161.00	255	0.83
161.55	241	0.78
162.70	505	1.64
163.85	317	1.03
164.70	373	1.21
165.95	164	0.53
166.65	97	0.31
167.25	332	1.08
167.75	152	0.49
168.60	292	0.95
169.20	186	0.60
169.80	81	0.26
170.25	192	0.62
170.90	199	0.65
171.40	206	0.67
171.90	184	0.60
173.00	7250	23.52
173.95	160	0.52
174.50	199	0.65
175.05	143	0.46
175.60	87	0.28
176.15	239	0.78
176.55	220	0.71
177.25	335	1.09
177.60	228	0.74
178.20	95	0.31
178.75	57	0.18
179.35	372	1.21
179.70	177	0.57
180.35	59	0.19
180.85	197	0.64
181.30	159	0.52
182.35	261	0.85
182.85	95	0.31
183.50	154	0.50
183.90	260	0.84
184.55	93	0.30
185.00	125	0.41
185.55	183	0.59
186.15	54	0.18
186.60	234	0.76
187.15	103	0.33
188.20	139	0.45
188.70	26	0.08
189.25	125	0.41
189.75	144	0.47
190.30	170	0.55
190.80	212	0.69
191.40	177	0.57
191.80	77	0.25
192.95	160	0.52
194.05	85	0.28
194.55	153	0.50
195.30	348	1.13
196.05	114	0.37
197.40	380	1.23
198.85	56	0.18
199.25	171	0.55
199.75	85	0.28
200.35	222	0.72
200.90	153	0.50
201.30	62	0.20
201.95	139	0.45
203.30	248	0.80
204.60	88	0.29
205.05	76	0.25
205.65	36	0.12
206.15	144	0.47
206.70	29	0.09
207.15	64	0.21
207.70	208	0.67
209.45	170	0.55
209.80	107	0.35
210.95	94	0.31
211.95	111	0.36
212.75	11	0.04
213.50	159	0.52
214.55	163	0.53
215.05	91	0.30
216.20	48	0.16
216.60	152	0.49
217.65	5	0.02
218.70	161	0.52
219.35	70	0.23
219.90	132	0.43
220.30	46	0.15
220.90	94	0.31
221.30	91	0.30
222.25	20	0.06
223.25	13	0.04
224.25	14	0.05
225.65	148	0.48
227.20	164	0.53
227.65	79	0.26
228.25	59	0.19
229.20	185	0.60
229.90	67	0.22
230.65	62	0.20
231.55	43	0.14
233.00	61	0.20
233.45	215	0.70
234.45	55	0.18
235.60	72	0.23
236.45	31	0.10
237.30	123	0.40
237.70	174	0.56
238.75	53	0.17
239.75	37	0.12
240.90	172	0.56
241.95	76	0.25
242.45	72	0.23
242.90	39	0.13
243.60	122	0.40
244.00	65	0.21
244.85	4	0.01
245.65	124	0.40
248.75	62	0.20
249.80	143	0.46
250.75	54	0.18
252.90	30	0.10
254.10	135	0.44
254.40	100	0.32
255.00	45	0.15
255.50	79	0.26
256.55	10	0.03
257.60	55	0.18
258.75	139	0.45
259.15	93	0.30
259.75	92	0.30
260.15	54	0.18
261.30	81	0.26
262.25	24	0.08
263.05	32	0.10
263.70	319	1.04
264.50	39	0.13
264.85	32	0.10
266.50	301	0.98
266.95	90	0.29
267.75	2	0.01
268.60	95	0.31
269.15	169	0.55
270.15	9	0.03
271.15	14	0.05
272.20	160	0.52
272.80	128	0.42
273.75	61	0.20
275.75	20	0.06
276.75	55	0.18
278.00	77	0.25
280.05	61	0.20
281.05	2	0.01
282.05	32	0.10
283.05	32	0.10
284.40	55	0.18
284.75	63	0.20
285.90	78	0.25
287.25	274	0.89
288.05	104	0.34
289.05	21	0.07
290.05	8	0.03
290.85	14	0.05
291.70	74	0.24
292.65	34	0.11
293.65	30	0.10
294.75	143	0.46
295.20	25	0.08
296.40	140	0.45
297.45	33	0.11
298.45	6	0.02
299.50	53	0.17
300.45	38	0.12
302.25	29	0.09
303.75	136	0.44
304.95	104	0.34
305.75	72	0.23
306.40	70	0.23
307.35	12	0.04
308.35	5	0.02
310.20	189	0.61
311.05	3	0.01
313.05	40	0.13
314.05	5	0.02
314.95	4	0.01
315.75	64	0.21
316.75	14	0.05
318.75	1	0.00
320.00	76	0.25
321.95	57	0.18
323.55	88	0.29
324.65	221	0.72
325.15	102	0.33
326.15	15	0.05
327.35	13654	44.30
328.30	102	0.33
328.85	334	1.08
329.35	103	0.33
330.25	20	0.06
331.05	127	0.41
332.05	51	0.17
333.10	136	0.44
334.05	24	0.08
335.05	28	0.09
336.90	6339	20.57
337.80	891	2.89
338.85	23	0.07
339.85	32	0.10
340.65	9	0.03
341.50	77	0.25
341.95	34	0.11
342.95	33	0.11
343.95	1	0.00
345.95	38	0.12
346.95	1	0.00
347.95	25	0.08
348.85	98	0.32
349.20	52	0.17
350.45	201	0.65
352.45	3	0.01
353.45	4	0.01
354.85	492	1.60
355.95	10	0.03
357.30	27	0.09
357.70	66	0.21
359.30	250	0.81
361.15	38	0.12
361.95	76	0.25
363.95	3	0.01
365.60	100	0.32
366.70	99	0.32
367.65	12	0.04
368.65	23	0.07
369.65	31	0.10
370.65	27	0.09
371.65	18	0.06
372.65	7	0.02
374.65	34	0.11
375.55	109	0.35
376.35	6	0.02
377.20	28	0.09
377.60	29	0.09
378.55	29	0.09
379.55	22	0.07
380.55	26	0.08
381.55	37	0.12
382.95	92	0.30
383.40	159	0.52
384.55	167	0.54
384.95	70	0.23
386.10	111	0.36
388.15	95	0.31
389.15	10	0.03
389.95	5	0.02
390.70	82	0.27
391.85	100	0.32
392.35	75	0.24
393.40	138	0.45
395.15	120	0.39
396.05	18	0.06
398.05	44	0.14
398.85	12	0.04
399.65	38	0.12
400.20	86	0.28
401.70	76	0.25
402.35	100	0.32
402.75	68	0.22
403.75	34	0.11
405.75	16	0.05
407.00	136	0.44
408.00	19388	62.91
408.95	27	0.09
409.95	42	0.14
410.95	10	0.03
411.95	11	0.04
413.20	45	0.15
414.25	40	0.13
415.25	2	0.01
416.50	47	0.15
417.45	57	0.18
418.45	26	0.08
419.45	28	0.09
421.15	2008	6.52
422.15	56	0.18
423.05	2	0.01
424.00	275	0.89
425.15	210	0.68
426.15	12	0.04
427.00	58	0.19
427.95	3	0.01
429.10	68	0.22
430.05	13	0.04
431.00	4111	13.34
431.95	9	0.03
432.75	75	0.24
433.20	122	0.40
434.30	56	0.18
435.05	15	0.05
435.85	85	0.28
436.75	16	0.05
437.55	68	0.22
437.95	43	0.14
438.55	55	0.18
439.05	84	0.27
440.05	60	0.19
441.25	147	0.48
442.25	9	0.03
443.25	68	0.22
444.15	12	0.04
445.00	3137	10.18
447.35	144	0.47
449.35	31	0.10
451.00	39	0.13
452.05	1	0.00
454.05	127	0.41
455.95	17	0.06
456.80	48	0.16
457.75	10	0.03
458.75	5	0.02
459.75	27	0.09
460.75	13	0.04
461.75	13	0.04
464.75	40	0.13
465.70	173	0.56
466.75	62	0.20
467.75	74	0.24
468.75	14	0.05
469.75	10	0.03
470.65	29	0.09
471.65	325	1.05
473.55	41	0.13
474.55	99	0.32
475.55	20	0.06
476.55	59	0.19
477.55	13	0.04
478.55	13	0.04
479.55	53	0.17
480.55	3	0.01
481.55	16	0.05
482.55	50	0.16
483.55	111	0.36
484.05	96	0.31
485.05	16	0.05
486.05	9	0.03
487.05	36	0.12
488.25	170	0.55
489.30	164	0.53
490.35	22	0.07
491.35	100	0.32
492.35	55	0.18
494.35	60	0.19
495.35	9	0.03
496.35	23	0.07
497.35	57	0.18
499.30	225	0.73
500.25	93	0.30
501.45	80	0.26
501.85	93	0.30
502.85	44	0.14
503.75	5	0.02
504.55	120	0.39
504.95	123	0.40
506.15	94	0.31
506.55	116	0.38
507.70	178	0.58
508.65	3	0.01
510.65	99	0.32
511.90	94	0.31
512.85	53	0.17
514.00	59	0.19
514.40	99	0.32
515.45	77	0.25
516.45	29	0.09
517.45	13	0.04
518.45	62	0.20
520.45	40	0.13
521.45	37	0.12
522.95	165	0.54
523.30	70	0.23
525.50	178	0.58
527.45	46	0.15
528.45	10	0.03
529.45	16	0.05
531.45	1	0.00
532.35	169	0.55
533.35	164	0.53
534.35	58	0.19
535.55	92	0.30
536.55	16	0.05
537.35	15	0.05
538.20	108	0.35
539.15	55	0.18
540.40	154	0.50
542.50	274	0.89
543.90	67	0.22
544.85	5	0.02
545.85	78	0.25
546.85	37	0.12
548.60	53	0.17
549.65	17	0.06
550.45	9	0.03
551.20	71	0.23
552.05	3	0.01
552.80	58	0.19
553.30	42	0.14
554.55	149	0.48
555.50	28	0.09
555.90	30	0.10
556.75	15	0.05
557.60	114	0.37
558.00	36	0.12
559.15	101	0.33
560.15	13	0.04
561.20	134	0.43
562.25	23	0.07
563.30	62	0.20
564.25	34	0.11
565.25	5	0.02
566.25	3	0.01
567.15	16	0.05
568.15	145	0.47
569.05	33	0.11
570.05	7	0.02
571.05	9	0.03
571.85	15	0.05
572.70	80	0.26
573.65	32	0.10
574.65	10	0.03
575.65	1	0.00
576.55	57	0.18
576.95	61	0.20
577.40	81	0.26
578.05	65	0.21
579.15	8	0.03
580.00	48	0.16
581.25	71	0.23
583.15	1	0.00
584.30	86	0.28
585.65	362	1.17
590.50	94	0.31
591.55	32	0.10
592.55	10	0.03
593.55	41	0.13
594.55	33	0.11
597.35	128	0.42
597.90	55	0.18
598.95	2	0.01
599.75	10	0.03
600.55	84	0.27
601.55	10	0.03
603.55	28	0.09
604.80	69	0.22
605.75	42	0.14
606.75	9	0.03
607.75	27	0.09
608.75	13	0.04
610.65	17	0.06
611.55	88	0.29
612.65	48	0.16
613.10	97	0.31
614.15	9	0.03
616.15	10	0.03
617.15	5	0.02
619.15	5	0.02
620.45	92	0.30
621.00	56	0.18
621.95	24	0.08
623.10	161	0.52
625.05	30	0.10
626.05	43	0.14
627.05	3	0.01
628.05	46	0.15
629.05	5	0.02
631.05	157	0.51
631.45	85	0.28
632.55	134	0.43
633.60	49	0.16
634.05	123	0.40
635.05	30	0.10
636.05	8	0.03
637.25	67	0.22
638.25	9	0.03
639.25	92	0.30
640.25	14	0.05
641.50	68	0.22
642.55	3	0.01
644.65	141	0.46
645.65	10	0.03
647.65	3	0.01
648.85	76	0.25
649.35	61	0.20
649.95	91	0.30
650.95	16	0.05
651.95	16	0.05
652.85	8	0.03
653.60	72	0.23
654.65	6	0.02
655.45	7	0.02
656.30	130	0.42
658.25	25	0.08
659.25	8	0.03
661.25	7	0.02
662.75	54	0.18
663.05	95	0.31
664.05	18	0.06
664.95	13	0.04
665.80	89	0.29
666.40	149	0.48
666.75	40	0.13
667.90	192	0.62
668.65	10	0.03
669.45	106	0.34
671.45	18	0.06
672.45	39	0.13
673.45	15	0.05
674.45	19	0.06
675.45	3	0.01
676.45	12	0.04
677.45	36	0.12
678.45	27	0.09
680.00	80	0.26
680.95	143	0.46
682.95	2	0.01
683.95	10	0.03
684.95	1518	4.93
685.95	16	0.05
686.95	15	0.05
687.95	36	0.12
689.35	146	0.47
691.65	45	0.15
691.95	37	0.12
693.95	5	0.02
694.75	7	0.02
695.50	178	0.58
696.25	152	0.49
697.25	3	0.01
698.90	73	0.24
700.95	4	0.01
701.85	11	0.04
702.70	66	0.21
703.10	91	0.30
704.15	49	0.16
705.15	1	0.00
706.15	15	0.05
707.35	69	0.22
707.85	32	0.10
708.75	88	0.29
710.00	35	0.11
712.95	219	0.71
713.95	34	0.11
714.95	4	0.01
715.95	12	0.04
716.95	8	0.03
717.85	183	0.59
718.70	117	0.38
719.50	140	0.45
722.55	162	0.53
723.00	486	1.58
723.75	101	0.33
725.40	85	0.28
726.95	24	0.08
727.45	48	0.16
728.10	275	0.89
730.05	13	0.04
731.10	144	0.47
731.55	31	0.10
732.70	36	0.12
733.10	39	0.13
733.85	27	0.09
734.15	74	0.24
735.15	1	0.00
736.15	19	0.06
737.35	35	0.11
737.90	44	0.14
738.95	27	0.09
740.05	113	0.37
743.05	30	0.10
745.05	44	0.14
746.30	120	0.39
747.80	101	0.33
748.25	84	0.27
749.45	114	0.37
750.95	99	0.32
752.05	57	0.18
752.55	134	0.43
754.35	10	0.03
755.15	78	0.25
759.05	6	0.02
759.85	72	0.23
761.00	226	0.73
761.95	33	0.11
763.30	143	0.46
764.55	652	2.12
765.20	83	0.27
765.60	61	0.20
766.65	9	0.03
767.60	58	0.19
768.65	32	0.10
770.65	21	0.07
771.65	11	0.04
773.65	47	0.15
774.65	10	0.03
776.20	92	0.30
776.55	133	0.43
777.65	52	0.17
778.95	94	0.31
779.85	27	0.09
780.85	1	0.00
781.85	13	0.04
782.85	20	0.06
783.85	37	0.12
784.85	17	0.06
785.75	14	0.05
786.60	103	0.33
787.65	24	0.08
788.65	67	0.22
789.65	137	0.44
790.75	10	0.03
791.75	75	0.24
792.85	33	0.11
794.15	59	0.19
794.50	33	0.11
795.65	77	0.25
796.05	61	0.20
797.05	34	0.11
798.50	89	0.29
799.55	19	0.06
Event	2
